Raman Shift (1/cm),Intensity (Counts)
302.468,1192
302.977,1198
303.486,1206
303.995,1202
304.503,1198
305.012,1217
305.521,1205
306.03,1190
306.538,1208
307.047,1198
307.556,1210
308.064,1206
308.573,1176
309.082,1202
309.59,1190
310.097,1208
310.605,1198
311.114,1212
311.622,1210
312.13,1207
312.639,1207
313.147,1202
313.655,1202
314.164,1208
314.672,1203
315.18,1197
315.686,1194
316.195,1212
316.703,1201
317.211,1212
317.719,1229
318.227,1203
318.735,1217
319.241,1205
319.749,1211
320.257,1208
320.765,1210
321.273,1212
321.781,1202
322.287,1200
322.794,1198
323.302,1195
323.81,1198
324.318,1208
324.823,1196
325.331,1209
325.839,1194
326.346,1198
326.852,1196
327.359,1216
327.867,1204
328.374,1204
328.88,1192
329.387,1216
329.895,1205
330.402,1186
330.907,1219
331.415,1226
331.922,1208
332.429,1200
332.935,1198
333.442,1221
333.949,1209
334.454,1217
334.961,1206
335.468,1199
335.973,1214
336.481,1198
336.988,1207
337.493,1208
338,1194
338.506,1219
339.011,1211
339.518,1207
340.023,1218
340.53,1212
341.037,1208
341.541,1214
342.048,1210
342.555,1207
343.06,1198
343.566,1227
344.071,1236
344.577,1204
345.082,1227
345.589,1231
346.095,1200
346.6,1206
347.106,1211
347.61,1199
348.117,1216
348.621,1213
349.128,1218
349.632,1210
350.138,1217
350.642,1205
351.149,1220
351.653,1192
352.159,1239
352.663,1226
353.169,1213
353.673,1214
354.179,1220
354.683,1220
355.189,1220
355.693,1215
356.199,1211
356.703,1202
357.209,1213
357.713,1203
358.219,1214
358.723,1194
359.226,1223
359.732,1208
360.236,1216
360.742,1206
361.245,1222
361.751,1186
362.255,1210
362.758,1217
363.264,1213
363.767,1221
364.271,1210
364.776,1202
365.28,1220
365.785,1206
366.289,1217
366.792,1222
367.297,1212
367.801,1190
368.304,1224
368.809,1221
369.312,1220
369.815,1210
370.321,1206
370.824,1210
371.327,1212
371.83,1213
372.335,1209
372.838,1215
373.341,1204
373.846,1232
374.349,1198
374.852,1211
375.355,1194
375.86,1210
376.362,1220
376.865,1224
377.368,1215
377.873,1226
378.376,1208
378.878,1224
379.381,1223
379.883,1228
380.388,1210
380.891,1224
381.393,1224
381.896,1220
382.398,1218
382.903,1226
383.405,1229
383.908,1219
384.41,1214
384.912,1224
385.415,1228
385.919,1224
386.421,1222
386.923,1212
387.426,1228
387.928,1213
388.43,1234
388.932,1231
389.434,1233
389.938,1228
390.44,1230
390.942,1226
391.444,1224
391.946,1243
392.448,1218
392.95,1238
393.452,1234
393.954,1216
394.456,1239
394.958,1242
395.459,1222
395.961,1246
396.463,1216
396.965,1249
397.466,1250
397.968,1254
398.469,1265
398.971,1236
399.473,1250
399.974,1248
400.476,1224
400.977,1249
401.479,1249
401.98,1245
402.481,1234
402.983,1244
403.484,1254
403.985,1246
404.487,1247
404.988,1225
405.489,1237
405.99,1236
406.491,1252
406.993,1249
407.494,1232
407.995,1223
408.496,1226
408.995,1232
409.496,1221
409.997,1232
410.498,1217
410.999,1220
411.5,1214
412,1234
412.501,1240
413.002,1231
413.501,1236
414.002,1216
414.502,1241
415.003,1222
415.504,1231
416.004,1227
416.503,1228
417.004,1219
417.504,1230
418.005,1198
418.505,1213
419.004,1221
419.504,1230
420.004,1237
420.505,1206
421.003,1214
421.504,1220
422.004,1240
422.504,1216
423.004,1237
423.503,1234
424.003,1232
424.503,1223
425.001,1226
425.501,1234
426.001,1213
426.501,1234
426.999,1214
427.499,1230
427.999,1237
428.497,1237
428.997,1230
429.497,1214
429.995,1227
430.495,1208
430.995,1226
431.493,1219
431.992,1236
432.492,1218
432.99,1238
433.489,1234
433.989,1225
434.487,1240
434.986,1240
435.486,1224
435.983,1218
436.483,1244
436.98,1234
437.48,1208
437.977,1229
438.477,1222
438.976,1226
439.473,1245
439.973,1230
440.47,1236
440.969,1215
441.467,1249
441.966,1237
442.465,1247
442.962,1240
443.461,1254
443.958,1244
444.457,1235
444.954,1240
445.453,1235
445.95,1230
446.449,1225
446.946,1220
447.445,1248
447.942,1243
448.441,1230
448.938,1236
449.437,1235
449.933,1228
450.43,1226
450.929,1219
451.426,1236
451.924,1233
452.421,1234
452.92,1233
453.416,1233
453.913,1237
454.411,1229
454.908,1232
455.406,1217
455.903,1220
456.399,1220
456.897,1212
457.394,1222
457.892,1220
458.388,1231
458.885,1229
459.383,1225
459.879,1231
460.375,1230
460.874,1223
461.37,1213
461.866,1222
462.364,1238
462.86,1214
463.356,1233
463.854,1241
464.35,1240
464.846,1221
465.342,1250
465.84,1216
466.336,1238
466.832,1224
467.329,1244
467.825,1232
468.321,1244
468.817,1226
469.314,1218
469.81,1236
470.306,1226.67
470.801,1226.89
471.297,1229.85
471.795,1227.8
472.29,1228.18
472.786,1228.61
473.281,1228.2
473.779,1228.33
474.274,1234.04
474.769,1236.31
475.265,1251
475.76,1240
476.256,1245
476.753,1243
477.248,1220
477.743,1235
478.239,1216
478.734,1228
479.229,1223
479.724,1236
480.221,1220
480.716,1244
481.211,1229
481.706,1217
482.201,1220
482.696,1232
483.191,1223
483.686,1235
484.181,1221
484.676,1246
485.171,1222
485.668,1240
486.163,1230
486.657,1233
487.152,1228
487.647,1233
488.141,1237
488.636,1234
489.131,1232
489.625,1222
490.12,1239
490.614,1224
491.109,1232
491.603,1251
492.098,1220
492.592,1229
493.087,1235
493.581,1218
494.076,1252
494.57,1212
495.064,1215
495.559,1227
496.053,1236
496.547,1227
497.041,1243
497.533,1238
498.027,1230
498.522,1236
499.016,1233
499.51,1210
500.004,1239
500.498,1238
500.992,1228
501.486,1237
501.98,1222
502.472,1240
502.965,1223
503.459,1222
503.953,1216
504.447,1227
504.941,1230
505.434,1234
505.926,1235
506.42,1230
506.913,1230
507.407,1244
507.901,1245
508.394,1248
508.886,1233
509.379,1236
509.873,1235
510.366,1239
510.86,1226
511.351,1247
511.845,1238
512.338,1216
512.831,1240
513.323,1240
513.816,1238
514.309,1214
514.802,1229
515.294,1236
515.787,1234
516.28,1264
516.771,1244
517.264,1246
517.757,1227
518.25,1242
518.741,1222
519.234,1248
519.727,1243
520.218,1218
520.711,1259
521.204,1226
521.695,1252
522.188,1266
522.681,1245
523.171,1242
523.664,1247
524.157,1239
524.647,1230
525.14,1240
525.631,1244
526.123,1242
526.616,1236
527.107,1255
527.599,1256
528.09,1245
528.582,1266
529.075,1266
529.565,1251
530.057,1228
530.548,1252
531.04,1252
531.53,1274
532.023,1267
532.515,1279
533.005,1268
533.497,1255
533.988,1295
534.48,1300
534.97,1276
535.462,1301
535.952,1288
536.444,1273
536.934,1266
537.426,1279
537.916,1264
538.408,1262
538.898,1249
539.388,1253
539.88,1256
540.37,1256
540.862,1258
541.351,1272
541.843,1258
542.333,1271
542.825,1286
543.314,1272
543.804,1289
544.296,1317
544.785,1324
545.277,1330
545.766,1354
546.256,1361
546.747,1370
547.237,1330
547.726,1337
548.218,1305
548.707,1290
549.198,1286
549.688,1298
550.177,1257
550.668,1290
551.158,1244
551.647,1265
552.136,1244
552.627,1241
553.116,1274
553.606,1252
554.097,1264
554.586,1248
555.075,1254
555.566,1261
556.055,1240
556.544,1247
557.033,1239
557.524,1252
558.013,1240
558.501,1252
558.99,1250
559.481,1275
559.97,1244
560.459,1245
560.947,1238
561.436,1255
561.927,1247
562.415,1244
562.904,1234
563.393,1241
563.881,1235
564.372,1266
564.86,1259
565.349,1252
565.837,1255
566.326,1262
566.814,1234
567.304,1266
567.793,1264
568.281,1233
568.769,1244
569.258,1264
569.746,1274
570.234,1243
570.722,1238
571.211,1226
571.701,1253
572.189,1248
572.677,1248
573.165,1219
573.653,1224
574.141,1261
574.629,1244
575.117,1247
575.605,1225
576.093,1248
576.581,1253
577.069,1244
577.557,1228
578.044,1268
578.532,1268
579.02,1238
579.508,1232
579.995,1263
580.483,1210
580.971,1240
581.458,1252
581.946,1240
582.433,1244
582.921,1255
583.409,1256
583.896,1242
584.383,1244
584.871,1240
585.358,1250
585.846,1228
586.333,1245
586.82,1250
587.306,1236
587.793,1263
588.28,1251
588.768,1240
589.255,1238
589.742,1253
590.229,1246
590.716,1248
591.203,1240
591.688,1248
592.175,1248
592.662,1248
593.149,1254
593.636,1254
594.123,1237
594.608,1274
595.095,1265
595.582,1298
596.069,1288
596.556,1288
597.043,1318
597.527,1314
598.014,1298
598.501,1277
598.987,1276
599.472,1238
599.959,1248
600.445,1262
600.932,1278
601.416,1254
601.903,1230
602.389,1229
602.876,1245
603.36,1238
603.847,1260
604.333,1250
604.82,1250
605.304,1230
605.79,1250
606.277,1241
606.761,1230
607.247,1262
607.733,1234
608.217,1246
608.704,1224
609.19,1218
609.674,1231
610.16,1242
610.646,1241
611.13,1272
611.616,1222
612.1,1242
612.586,1251
613.072,1243
613.556,1228
614.042,1230
614.526,1249
615.011,1238
615.497,1238
615.981,1218
616.467,1233
616.95,1245
617.436,1233
617.92,1245
618.405,1247
618.891,1227
619.375,1232
619.86,1234
620.344,1258
620.829,1242
621.313,1243
621.798,1261
622.282,1238
622.767,1226
623.25,1246
623.736,1242
624.219,1256
624.704,1247
625.188,1238
625.673,1234
626.156,1245
626.639,1242
627.125,1249
627.608,1247
628.093,1229
628.576,1238
629.061,1256
629.544,1236
630.027,1238
630.512,1229
630.995,1234
631.48,1234
631.963,1248
632.446,1261
632.931,1220
633.414,1250
633.898,1242
634.381,1244
634.864,1234
635.349,1238
635.831,1233
636.314,1265
636.799,1230
637.281,1230
637.764,1238
638.249,1239
638.731,1249
639.214,1250
639.696,1243
640.181,1261
640.663,1222
641.146,1234
641.63,1254
642.112,1245
642.595,1242
643.077,1235
643.561,1222
644.044,1234
644.526,1258
645.008,1234
645.492,1238
645.974,1240
646.456,1230
646.939,1239
647.421,1258
647.905,1266
648.387,1248
648.869,1250
649.351,1273
649.833,1250
650.317,1246
650.799,1222
651.281,1271
651.762,1251
652.244,1247
652.726,1262
653.208,1250
653.692,1246
654.173,1240
654.655,1250
655.137,1263
655.618,1256
656.1,1241
656.582,1244
657.063,1241
657.545,1235
658.028,1235
658.51,1245
658.991,1234
659.473,1261
659.954,1246
660.436,1240
660.917,1253
661.398,1246
661.88,1232
662.361,1263
662.842,1274
663.323,1242
663.805,1252
664.286,1247
664.767,1248
665.248,1224
665.729,1234
666.21,1262
666.691,1256
667.172,1255
667.654,1230
668.134,1236
668.615,1240
669.096,1238
669.577,1235
670.058,1232
670.539,1270
671.018,1254
671.499,1250
671.979,1238
672.46,1250
672.941,1258
673.422,1253
673.902,1265
674.383,1257
674.864,1242
675.344,1253
675.823,1249
676.303,1251
676.784,1249
677.264,1235
677.745,1248
678.225,1238
678.704,1263
679.184,1247
679.665,1250
680.145,1232
680.625,1282
681.104,1251
681.584,1235
682.064,1255
682.544,1233
683.025,1224
683.503,1261
683.983,1253
684.463,1241
684.943,1244
685.421,1245
685.901,1274
686.381,1262
686.861,1267
687.339,1248
687.819,1269
688.299,1234
688.779,1254
689.257,1265
689.737,1246
690.217,1240
690.694,1252
691.174,1251
691.654,1250
692.132,1241
692.611,1249
693.091,1259
693.569,1247
694.048,1246
694.528,1228
695.005,1222
695.485,1251
695.962,1245
696.442,1231
696.921,1240
697.399,1250
697.878,1232
698.356,1226
698.835,1257
699.314,1246
699.792,1259
700.271,1246
700.748,1251
701.227,1248
701.705,1260
702.184,1246
702.663,1258
703.14,1247
703.619,1241
704.096,1241
704.575,1239
705.052,1248
705.531,1240
706.008,1263
706.487,1252
706.964,1267
707.443,1251
707.92,1244
708.399,1241
708.876,1250
709.353,1236
709.831,1250
710.308,1237
710.787,1251
711.264,1256
711.742,1244
712.219,1251
712.698,1240
713.174,1273
713.651,1226
714.129,1229
714.606,1256
715.084,1262
715.561,1237
716.037,1264
716.516,1282
716.992,1256
717.468,1240
717.947,1261
718.423,1249
718.899,1242
719.378,1256
719.854,1232
720.33,1244
720.808,1262
721.285,1236
721.761,1242
722.239,1245
722.715,1266
723.191,1233
723.667,1254
724.145,1259
724.621,1266
725.097,1235
725.575,1263
726.051,1266
726.527,1258
727.003,1247
727.481,1246
727.956,1248
728.432,1240
728.908,1239
729.384,1242
729.862,1256
730.337,1260
730.813,1254
731.289,1247
731.764,1268
732.242,1247
732.717,1249
733.193,1272
733.668,1238
734.144,1225
734.619,1240
735.097,1263
735.572,1243
736.048,1253
736.523,1263
736.998,1248
737.474,1244
737.949,1261
738.424,1254
738.9,1234
739.377,1249
739.852,1244
740.327,1264
740.802,1256
741.278,1245
741.753,1264
742.228,1256
742.703,1267
743.178,1258
743.653,1253
744.128,1264
744.603,1268
745.078,1268
745.553,1250
746.027,1269
746.502,1267
746.977,1240
747.452,1255
747.927,1256
748.401,1266
748.876,1264
749.351,1230
749.826,1261
750.3,1256
750.775,1246
751.249,1264
751.724,1252
752.199,1275
752.673,1266
753.148,1268
753.62,1259
754.095,1266
754.569,1278
755.043,1256.88
755.518,1263.58
755.992,1274.28
756.466,1259.12
756.941,1256
757.415,1243.6
757.887,1233.13
758.362,1259.82
758.836,1251.77
759.31,1258.24
759.784,1270.54
760.258,1256.87
760.73,1270.26
761.204,1251.54
761.678,1241.17
762.152,1265.6
762.626,1258.28
763.098,1279.4
763.572,1256.9
764.046,1246.32
764.52,1263.96
764.994,1258.49
765.466,1267.49
765.94,1263.47
766.414,1252.43
766.887,1256.22
767.359,1258.13
767.833,1258.37
768.307,1250.99
768.778,1261.75
769.252,1268.36
769.726,1254.96
770.199,1269.54
770.671,1257.9
771.144,1266.56
771.618,1265.41
772.089,1269.52
772.563,1261.49
773.036,1256.8
773.508,1267.19
773.981,1265.71
774.455,1256.33
774.926,1255.52
775.399,1267.43
775.873,1263.59
776.344,1264.9
776.817,1262.03
777.288,1263.91
777.762,1264.91
778.235,1271.73
778.706,1278.46
779.179,1275.91
779.65,1292.06
780.123,1313.96
780.596,1319.73
781.068,1342.79
781.541,1356.8
782.012,1386.97
782.484,1386.7
782.955,1389.91
783.428,1375.56
783.899,1372.4
784.372,1342.26
784.843,1335.63
785.316,1349.75
785.789,1338.42
786.259,1345.53
786.732,1345.6
787.203,1349.59
787.674,1373.4
788.146,1384.31
788.617,1393.45
789.089,1407.73
789.56,1428.18
790.033,1448.79
790.503,1428.65
790.976,1445.16
791.446,1428.78
791.919,1403.44
792.389,1369.97
792.86,1364.36
793.332,1346.01
793.802,1332.28
794.275,1316.85
794.745,1298.92
795.215,1298.9
795.688,1295.77
796.158,1283.52
796.63,1277.14
797.1,1254.61
797.571,1269.1
798.043,1280.46
798.513,1259.49
798.983,1244.07
799.455,1260.7
799.925,1261.37
800.395,1245.28
800.867,1248.44
801.337,1254.42
801.807,1262.9
802.279,1245.55
802.749,1251.98
803.219,1255
803.254,1255
803.73,1265
804.206,1253
804.682,1269
805.157,1256
805.633,1224
806.109,1230
806.584,1230
807.06,1232
807.536,1244
808.011,1246
808.487,1268
808.962,1248
809.438,1240
809.913,1238
810.389,1251
810.864,1252
811.339,1259
811.815,1252
812.29,1229
812.766,1240
813.241,1246
813.716,1259
814.191,1242
814.667,1242
815.142,1246
815.617,1234
816.092,1250
816.567,1238
817.042,1222
817.517,1246
817.992,1228
818.467,1248
818.94,1244
819.415,1242
819.89,1264
820.365,1237
820.84,1224
821.315,1236
821.79,1244
822.265,1228
822.737,1231
823.212,1228
823.687,1252
824.162,1243
824.636,1220
825.111,1234
825.584,1232
826.058,1236
826.533,1234
827.007,1228
827.482,1211
827.954,1226
828.429,1250
828.903,1237
829.378,1238
829.852,1228
830.325,1224
830.799,1242
831.273,1208
831.748,1241
832.22,1223
832.694,1214
833.169,1220
833.643,1227
834.115,1233
834.589,1242
835.063,1241
835.535,1230
836.01,1242
836.484,1200
836.958,1243
837.43,1220
837.904,1236
838.378,1220
838.85,1230
839.323,1241
839.797,1237
840.269,1234
840.743,1226
841.217,1212
841.689,1236
842.163,1230
842.634,1238
843.108,1236
843.582,1222
844.053,1248
844.527,1236
845.001,1225
845.472,1232
845.946,1234
846.417,1242
846.891,1235
847.362,1227
847.836,1226
848.309,1220
848.781,1237
849.254,1258
849.726,1231
850.199,1246
850.67,1232
851.144,1236
851.615,1232
852.088,1234
852.559,1228
853.033,1234
853.504,1238
853.977,1225
854.448,1226
854.921,1225
855.392,1232
855.865,1232
856.336,1234
856.809,1226
857.28,1230
857.753,1242
858.224,1230
858.697,1248
859.168,1242
859.639,1229
860.112,1234
860.583,1250
861.055,1222
861.526,1232
861.997,1230
862.469,1238
862.94,1244
863.413,1236
863.883,1234
864.354,1237
864.827,1241
865.297,1220
865.77,1198
866.24,1244
866.711,1226
867.183,1227
867.654,1221
868.124,1238
868.597,1232
869.067,1236
869.537,1235
870.008,1221
870.48,1224
870.95,1246
871.42,1218
871.893,1240
872.363,1231
872.833,1226
873.305,1231
873.775,1244
874.245,1267
874.715,1218
875.188,1247
875.658,1242
876.128,1239
876.598,1246
877.068,1261
877.539,1230
878.009,1235
878.479,1244
878.949,1262
879.421,1237
879.891,1228
880.36,1240
880.83,1237
881.3,1244
881.77,1236
882.241,1245
882.711,1245
883.181,1252
883.65,1260
884.12,1225
884.589,1261
885.059,1244
885.53,1244
886,1252
886.469,1232
886.939,1256
887.408,1248
887.878,1252
888.347,1246
888.816,1256
889.286,1278
889.757,1246
890.226,1242
890.695,1248
891.165,1228
891.634,1236
892.103,1251
892.572,1231
893.041,1239
893.51,1222
893.98,1256
894.449,1244
894.918,1255
895.387,1243
895.856,1236
896.325,1245
896.794,1250
897.262,1242
897.731,1240
898.2,1249
898.669,1226
899.138,1253
899.607,1238
900.075,1232
900.544,1238
901.013,1244
901.481,1257
901.95,1240
902.419,1234
902.885,1235
903.354,1240
903.823,1222
904.291,1246
904.76,1240
905.228,1230
905.697,1256
906.165,1240
906.633,1235
907.1,1240
907.568,1252
908.036,1255
908.505,1228
908.973,1246
909.441,1226
909.91,1228
910.376,1241
910.844,1239
911.312,1230
911.78,1249
912.249,1246
912.717,1236
913.183,1255
913.651,1240
914.119,1228
914.587,1233
915.053,1246
915.521,1234
915.989,1255
916.457,1240
916.924,1256
917.39,1242
917.858,1267
918.326,1248
918.792,1240
919.26,1241
919.727,1230
920.195,1245
920.661,1240
921.128,1242
921.596,1244
922.062,1222
922.529,1245
922.997,1224
923.464,1251
923.93,1250
924.397,1257
924.865,1240
925.33,1230
925.798,1230
926.263,1245
926.731,1241
927.198,1244
927.663,1242
928.13,1250
928.598,1244
929.063,1234
929.53,1240
929.996,1238
930.463,1246
930.93,1258
931.395,1257
931.862,1241
932.327,1246
932.794,1245
933.259,1263
933.726,1235
934.193,1238
934.658,1225
935.125,1228
935.59,1234
936.057,1234
936.522,1254
936.989,1246
937.454,1231
937.92,1228
938.385,1242
938.852,1262
939.317,1256
939.783,1259
940.248,1232
940.715,1241
941.179,1248
941.646,1250
942.111,1254
942.575,1262
943.042,1261
943.506,1252
943.973,1222
944.437,1240
944.904,1250
945.368,1248
945.832,1249
946.299,1238
946.763,1260
947.229,1254
947.694,1269
948.158,1254
948.624,1244
949.089,1248
949.553,1248
950.019,1257
950.483,1246
950.949,1243
951.413,1249
951.877,1256
952.343,1214
952.807,1232
953.271,1243
953.735,1248
954.201,1245
954.665,1245
955.129,1242
955.595,1260
956.059,1260
956.523,1252
956.987,1247
957.453,1254
957.916,1258
958.38,1260
958.846,1255
959.309,1262
959.773,1271
960.237,1238
960.701,1254
961.166,1259
961.63,1255
962.093,1251
962.557,1259
963.022,1265
963.486,1270
963.949,1264
964.413,1274
964.876,1274
965.339,1264
965.805,1288
966.268,1282
966.732,1261
967.195,1254
967.658,1273
968.121,1276
968.585,1263
969.05,1299
969.513,1288
969.976,1281
970.439,1291
970.902,1297
971.365,1307
971.828,1307
972.292,1287
972.755,1296
973.218,1277
973.682,1261
974.145,1286
974.608,1266
975.071,1284
975.534,1256
975.997,1258
976.46,1275
976.923,1266
977.385,1275
977.848,1271
978.311,1245
978.773,1266
979.236,1239
979.699,1265
980.161,1258
980.624,1248
981.087,1260
981.549,1265
982.012,1246
982.474,1228
982.937,1272
983.399,1264
983.862,1272
984.324,1258
984.785,1266
985.247,1270
985.709,1256
986.172,1268
986.634,1250
987.096,1263
987.558,1266
988.021,1259
988.483,1268
988.945,1279
989.405,1284
989.867,1263
990.329,1272
990.792,1247
991.254,1253
991.716,1274
992.178,1276
992.638,1255
993.1,1265
993.562,1266
994.023,1262
994.485,1262
994.947,1256
995.407,1250
995.869,1266
996.331,1260
996.793,1256
997.252,1270
997.714,1264
998.176,1264
998.637,1260
999.099,1258
999.559,1270
1000.02,1262
1000.48,1264
1000.94,1262
1001.4,1261
1001.86,1259
1002.33,1263
1002.79,1290
1003.25,1293
1003.71,1252
1004.17,1260
1004.63,1270
1005.09,1248
1005.55,1264
1006.01,1250
1006.47,1240
1006.93,1272
1007.39,1240
1007.85,1262
1008.31,1265
1008.77,1267
1009.24,1277
1009.7,1268
1010.16,1260
1010.62,1263
1011.08,1263
1011.54,1268
1012,1245
1012.46,1269
1012.92,1256
1013.38,1270
1013.84,1261
1014.3,1250
1014.76,1252
1015.22,1262
1015.68,1266
1016.14,1251
1016.6,1246
1017.06,1247
1017.52,1262
1017.98,1270
1018.44,1263
1018.9,1256
1019.36,1250
1019.82,1256
1020.27,1260
1020.73,1257
1021.19,1273
1021.65,1264
1022.11,1250
1022.57,1271
1023.03,1244
1023.49,1252
1023.95,1283
1024.41,1254
1024.87,1242
1025.33,1242
1025.79,1266
1026.25,1264
1026.7,1259
1027.16,1254
1027.62,1266
1028.08,1258
1028.54,1276
1029,1262
1029.46,1256
1029.92,1194
1030.38,1253
1030.84,1266
1031.29,1286
1031.75,1268
1032.21,1249
1032.67,1246
1033.13,1256
1033.59,1252
1034.05,1250
1034.5,1269
1034.96,1250
1035.42,1263
1035.88,1254
1036.34,1258
1036.8,1260
1037.25,1245
1037.71,1274
1038.17,1256
1038.63,1249
1039.09,1267
1039.54,1266
1040,1264
1040.46,1253
1040.92,1261
1041.38,1274
1041.84,1260
1042.29,1267
1042.75,1272
1043.21,1270
1043.67,1262
1044.12,1254
1044.58,1260
1045.04,1257
1045.5,1268
1045.95,1274
1046.41,1274
1046.87,1254
1047.33,1255
1047.79,1252
1048.24,1248
1048.7,1266
1049.16,1270
1049.61,1244
1050.07,1249
1050.53,1262
1050.99,1252
1051.44,1266
1051.9,1272
1052.36,1258
1052.81,1270
1053.27,1264
1053.73,1266
1054.19,1275
1054.64,1259
1055.1,1251
1055.56,1252
1056.01,1276
1056.47,1248
1056.93,1283
1057.38,1272
1057.84,1256
1058.3,1268
1058.75,1275
1059.21,1254
1059.67,1276
1060.12,1244
1060.58,1271
1061.04,1278
1061.49,1278
1061.95,1272
1062.41,1266
1062.86,1261
1063.32,1282
1063.77,1262
1064.23,1256
1064.69,1270
1065.14,1278
1065.6,1286
1066.06,1286
1066.51,1246
1066.97,1272
1067.42,1272
1067.88,1266
1068.34,1296
1068.79,1282
1069.25,1276
1069.7,1268
1070.16,1253
1070.62,1267
1071.07,1287
1071.53,1292
1071.98,1262
1072.44,1288
1072.89,1260
1073.35,1286
1073.81,1279
1074.26,1284
1074.71,1264
1075.17,1280
1075.63,1263
1076.08,1254
1076.54,1275
1076.99,1254
1077.45,1258
1077.9,1277
1078.36,1287
1078.81,1255
1079.27,1283
1079.72,1283
1080.18,1268
1080.63,1281
1081.09,1284
1081.54,1282
1082,1286
1082.45,1285
1082.91,1286
1083.36,1290
1083.82,1278
1084.27,1264
1084.73,1286
1085.18,1274
1085.64,1262
1086.09,1285
1086.54,1282
1087,1256
1087.45,1290
1087.91,1275
1088.36,1262
1088.82,1286
1089.27,1262
1089.72,1280
1090.18,1276
1090.63,1292
1091.09,1284
1091.54,1278
1092,1285
1092.45,1264
1092.9,1278
1093.36,1290
1093.81,1279
1094.27,1280
1094.72,1267
1095.17,1266
1095.63,1282
1096.08,1296
1096.54,1281
1096.99,1296
1097.44,1295
1097.9,1274
1098.35,1270
1098.8,1295
1099.26,1304
1099.71,1285
1100.17,1302
1100.62,1308
1101.07,1295
1101.52,1290
1101.98,1293
1102.43,1308
1102.88,1304
1103.34,1296
1103.79,1302
1104.24,1306
1104.7,1282
1105.15,1312
1105.6,1296
1106.06,1314
1106.51,1312
1106.96,1317
1107.41,1306
1107.87,1310
1108.32,1304
1108.78,1306
1109.23,1301
1109.68,1293
1110.13,1314
1110.59,1300
1111.04,1270
1111.49,1294
1111.94,1292
1112.4,1285
1112.85,1294
1113.3,1308
1113.75,1308
1114.21,1299
1114.66,1278
1115.11,1278
1115.56,1288
1116.02,1296
1116.47,1287
1116.92,1301
1117.37,1286
1117.83,1278
1118.28,1295
1118.73,1291
1119.18,1285
1119.63,1277
1120.09,1276
1120.54,1274
1120.99,1268
1121.44,1256
1121.89,1294
1122.34,1282
1122.8,1297
1123.25,1268
1123.7,1270
1124.15,1260
1124.6,1280
1125.05,1278
1125.51,1287
1125.96,1284
1126.41,1277
1126.86,1274
1127.31,1278
1127.76,1292
1128.22,1262
1128.67,1288
1129.12,1283
1129.57,1266
1130.02,1290
1130.47,1284
1130.92,1281
1131.37,1261
1131.82,1289
1132.27,1269
1132.73,1287
1133.18,1276
1133.63,1293
1134.08,1268
1134.53,1302
1134.98,1276
1135.43,1266
1135.88,1291
1136.33,1265
1136.78,1283
1137.23,1266
1137.68,1260
1138.14,1250
1138.59,1290
1139.04,1279
1139.49,1286
1139.94,1292
1140.39,1278
1140.84,1272
1141.29,1270
1141.74,1274
1142.19,1264
1142.64,1298
1143.09,1285
1143.54,1264
1143.99,1283
1144.44,1280
1144.89,1277
1145.34,1279
1145.79,1270
1146.24,1277
1146.69,1278
1147.14,1268
1147.59,1284
1148.04,1286
1148.49,1285
1148.94,1289
1149.39,1295
1149.84,1280
1150.29,1284
1150.74,1269
1151.19,1246
1151.64,1306
1152.09,1274
1152.54,1270
1152.99,1285
1153.44,1275
1153.89,1274
1154.34,1280
1154.78,1296
1155.23,1269
1155.68,1277
1156.13,1264
1156.58,1281
1157.03,1262
1157.48,1268
1157.93,1263
1158.38,1289
1158.83,1270
1159.28,1284
1159.72,1293
1160.17,1284
1160.62,1269
1161.07,1264
1161.52,1279
1161.97,1284
1162.42,1281
1162.87,1284
1163.31,1302
1163.76,1271
1164.21,1280
1164.66,1265
1165.11,1292
1165.56,1274
1166.01,1264
1166.46,1284
1166.9,1283
1167.35,1284
1167.8,1269
1168.25,1279
1168.7,1287
1169.14,1270
1169.59,1274
1170.04,1272
1170.49,1287
1170.94,1268
1171.39,1275
1171.83,1290
1172.28,1270
1172.73,1276
1173.18,1281
1173.63,1297
1174.07,1282
1174.52,1281
1174.97,1272
1175.42,1285
1175.86,1280
1176.31,1295
1176.76,1295
1177.21,1278
1177.66,1287
1178.1,1277
1178.55,1274
1179,1278
1179.45,1279
1179.89,1291
1180.34,1280
1180.79,1283
1181.23,1293
1181.68,1287
1182.13,1286
1182.58,1290
1183.02,1283.89
1183.47,1270.72
1183.92,1280.15
1184.37,1286.72
1184.81,1287.31
1185.26,1256.63
1185.71,1277.04
1186.15,1278.67
1186.6,1272.19
1187.05,1262.47
1187.49,1281.13
1187.94,1276.57
1188.39,1282.27
1188.83,1283.97
1189.28,1277.9
1189.73,1270.93
1190.17,1281.05
1190.62,1271.5
1191.07,1274.8
1191.51,1263.96
1191.96,1280.88
1192.41,1266.5
1192.85,1289.29
1193.3,1275.4
1193.75,1257.37
1194.19,1279.92
1194.64,1286.17
1195.09,1268.01
1195.53,1272.3
1195.98,1273.76
1196.42,1279.25
1196.87,1281.53
1197.32,1268.97
1197.76,1283.15
1198.21,1266.4
1198.65,1279.88
1199.1,1273.8
1199.55,1281.17
1199.99,1275.51
1200.44,1278.65
1200.88,1284.62
1201.33,1270.02
1201.78,1281.12
1202.22,1281.23
1202.67,1286.12
1203.11,1271.88
1203.56,1275.58
1204,1279.61
1204.45,1279.01
1204.9,1285.06
1205.34,1270.52
1205.79,1273.84
1206.23,1272.74
1206.68,1276.08
1207.12,1263.29
1207.57,1279.21
1208.01,1274.69
1208.46,1285.01
1208.9,1281.73
1209.35,1278.26
1209.79,1271.73
1210.24,1272.62
1210.68,1273.06
1211.13,1270.58
1211.57,1267.31
1212.02,1262.73
1212.46,1264.03
1212.91,1268.31
1213.35,1280.81
1213.8,1274.34
1214.24,1275.52
1214.69,1280.75
1215.13,1273.12
1215.58,1264.91
1216.02,1265.67
1216.47,1266.21
1216.91,1269.69
1217.36,1272.64
1217.8,1264.05
1218.25,1272.18
1218.69,1275.88
1219.13,1279.95
1219.58,1282.55
1220.02,1280.61
1220.47,1280.99
1220.91,1283.48
1221.36,1274.54
1221.8,1282.62
1222.24,1283.74
1222.69,1263.91
1223.13,1268.79
1223.58,1286.86
1224.02,1285.38
1224.46,1273.51
1224.91,1270.03
1225.35,1287.23
1225.8,1285.69
1226.24,1280.04
1226.68,1263.16
1227.13,1279.05
1227.52,1292
1227.97,1282
1228.42,1283
1228.87,1290
1229.31,1287
1229.76,1286
1230.21,1285
1230.66,1289
1231.11,1270
1231.56,1280
1232.01,1298
1232.46,1286
1232.91,1276
1233.35,1308
1233.8,1268
1234.25,1286
1234.7,1297
1235.15,1297
1235.6,1291
1236.05,1296
1236.49,1308
1236.94,1286
1237.39,1303
1237.84,1301
1238.29,1286
1238.74,1308
1239.18,1312
1239.63,1330
1240.08,1286
1240.53,1312
1240.98,1324
1241.43,1326
1241.87,1347
1242.32,1334
1242.77,1354
1243.22,1335
1243.67,1316
1244.11,1316
1244.56,1346
1245.01,1335
1245.46,1341
1245.91,1363
1246.35,1354
1246.8,1342
1247.25,1380
1247.7,1354
1248.14,1357
1248.59,1371
1249.04,1372
1249.49,1363
1249.93,1362
1250.38,1366
1250.83,1356
1251.28,1354
1251.72,1340
1252.17,1316
1252.62,1347
1253.07,1330
1253.51,1354
1253.96,1336
1254.41,1313
1254.86,1302
1255.3,1326
1255.75,1300
1256.2,1309
1256.64,1312
1257.09,1312
1257.54,1314
1257.98,1294
1258.43,1294
1258.88,1306
1259.32,1304
1259.77,1286
1260.22,1290
1260.66,1282
1261.11,1305
1261.56,1276
1262.01,1304
1262.45,1283
1262.9,1306
1263.34,1301
1263.79,1278
1264.24,1274
1264.68,1288
1265.13,1296
1265.58,1292
1266.02,1293
1266.47,1294
1266.92,1289
1267.36,1328
1267.81,1308
1268.25,1308
1268.7,1327
1269.15,1312
1269.59,1355
1270.04,1376
1270.48,1366
1270.93,1374
1271.38,1394
1271.82,1454
1272.27,1493
1272.71,1557
1273.16,1600
1273.6,1622
1274.05,1610
1274.5,1579
1274.94,1592
1275.39,1554
1275.83,1478
1276.28,1492
1276.72,1442
1277.17,1394
1277.61,1386
1278.06,1346
1278.51,1350
1278.95,1312
1279.4,1329
1279.84,1326
1280.29,1331
1280.73,1292
1281.18,1304
1281.62,1296
1282.07,1282
1282.51,1305
1282.96,1276
1283.4,1262
1283.85,1296
1284.29,1293
1284.74,1269
1285.18,1288
1285.63,1287
1286.07,1289
1286.52,1274
1286.96,1278
1287.41,1271
1287.85,1265
1288.3,1264
1288.74,1268
1289.19,1256
1289.63,1250
1290.07,1268
1290.52,1274
1290.96,1264
1291.41,1292
1291.85,1262
1292.3,1297
1292.74,1267
1293.19,1276
1293.63,1282
1294.07,1276
1294.52,1256
1294.96,1282
1295.41,1265
1295.85,1294
1296.3,1286
1296.74,1271
1297.18,1278
1297.63,1264
1298.07,1267
1298.51,1277
1298.96,1260
1299.4,1277
1299.85,1265
1300.29,1282
1300.73,1270
1301.18,1284
1301.62,1288
1302.06,1284
1302.51,1280
1302.95,1288
1303.39,1286
1303.84,1296
1304.28,1286
1304.72,1284
1305.17,1271
1305.61,1291
1306.05,1278
1306.5,1272
1306.94,1260
1307.38,1258
1307.83,1291
1308.27,1282
1308.71,1290
1309.16,1282
1309.6,1276
1310.04,1273
1310.49,1273
1310.93,1278
1311.37,1276
1311.82,1273
1312.26,1281
1312.7,1272
1313.14,1262
1313.59,1286
1314.03,1280
1314.47,1284
1314.92,1279
1315.36,1282
1315.8,1269
1316.24,1260
1316.69,1279
1317.13,1283
1317.57,1283
1318.01,1273
1318.46,1273
1318.9,1280
1319.34,1285
1319.78,1280
1320.22,1282
1320.67,1276
1321.11,1270
1321.55,1270
1321.99,1265
1322.44,1286
1322.88,1286
1323.32,1285
1323.76,1290
1324.2,1282
1324.64,1278
1325.09,1273
1325.53,1283
1325.97,1289
1326.41,1270
1326.85,1242
1327.3,1263
1327.74,1286
1328.18,1282
1328.62,1295
1329.06,1294
1329.51,1300
1329.95,1289
1330.39,1283
1330.83,1293
1331.27,1276
1331.71,1270
1332.15,1274
1332.6,1261
1333.04,1275
1333.48,1272
1333.92,1268
1334.36,1281
1334.8,1268
1335.24,1282
1335.68,1270
1336.12,1280
1336.57,1283
1337.01,1272
1337.45,1279
1337.89,1267
1338.33,1289
1338.77,1254
1339.21,1277
1339.65,1258
1340.09,1272
1340.53,1266
1340.98,1264
1341.42,1276
1341.86,1270
1342.3,1262
1342.74,1277
1343.18,1262
1343.62,1287
1344.06,1283
1344.5,1280
1344.94,1292
1345.38,1272
1345.82,1280
1346.26,1291
1346.7,1272
1347.14,1272
1347.58,1278
1348.02,1276
1348.46,1276
1348.9,1268
1349.34,1303
1349.78,1280
1350.22,1294
1350.66,1287
1351.1,1278
1351.54,1274
1351.98,1286
1352.42,1289
1352.86,1288
1353.3,1275
1353.74,1274
1354.18,1293
1354.62,1295
1355.06,1294
1355.5,1288
1355.94,1299
1356.38,1312
1356.82,1310
1357.26,1282
1357.7,1303
1358.14,1310
1358.58,1296
1359.02,1318
1359.46,1309
1359.9,1339
1360.33,1332
1360.77,1312
1361.21,1320
1361.65,1302
1362.09,1319
1362.53,1300
1362.97,1294
1363.41,1294
1363.85,1320
1364.29,1291
1364.73,1305
1365.16,1304
1365.6,1286
1366.04,1284
1366.48,1286
1366.92,1275
1367.36,1289
1367.8,1276
1368.24,1290
1368.68,1286
1369.11,1293
1369.55,1282
1369.99,1287
1370.43,1275
1370.87,1268
1371.31,1290
1371.75,1278
1372.18,1277
1372.62,1268
1373.06,1279
1373.5,1283
1373.94,1287
1374.37,1278
1374.81,1270
1375.25,1292
1375.69,1277
1376.13,1299
1376.57,1288
1377,1282
1377.44,1273
1377.88,1274
1378.32,1292
1378.76,1276
1379.19,1284
1379.63,1281
1380.07,1276
1380.51,1281
1380.94,1264
1381.38,1280
1381.82,1281
1382.26,1269
1382.7,1289
1383.13,1258
1383.57,1276
1384.01,1300
1384.44,1305
1384.88,1269
1385.32,1268
1385.76,1256
1386.2,1266
1386.63,1259
1387.07,1272
1387.51,1261
1387.94,1274
1388.38,1259
1388.82,1278
1389.26,1260
1389.69,1277
1390.13,1270
1390.57,1272
1391,1230
1391.44,1270
1391.88,1294
1392.31,1277
1392.75,1277
1393.19,1258
1393.62,1265
1394.06,1251
1394.5,1277
1394.94,1252
1395.37,1278
1395.81,1268
1396.24,1256
1396.68,1286
1397.12,1272
1397.56,1264
1397.99,1238
1398.43,1282
1398.86,1277
1399.3,1265
1399.74,1280
1400.17,1262
1400.61,1262
1401.05,1278
1401.48,1270
1401.92,1281
1402.35,1266
1402.79,1262
1403.23,1283
1403.66,1261
1404.1,1278
1404.53,1284
1404.97,1253
1405.41,1273
1405.84,1271
1406.28,1264
1406.71,1269
1407.15,1264
1407.59,1260
1408.02,1258
1408.46,1283
1408.89,1280
1409.33,1266
1409.76,1260
1410.2,1278
1410.64,1278
1411.07,1274
1411.51,1280
1411.94,1263
1412.38,1294
1412.81,1265
1413.25,1260
1413.68,1260
1414.12,1270
1414.55,1280
1414.99,1266
1415.42,1276
1415.86,1265
1416.29,1268
1416.73,1290
1417.16,1286
1417.6,1284
1418.03,1263
1418.47,1244
1418.9,1269
1419.34,1282
1419.77,1281
1420.21,1264
1420.64,1270
1421.08,1258
1421.51,1259
1421.95,1286
1422.38,1272
1422.82,1285
1423.25,1271
1423.69,1268
1424.12,1260
1424.56,1273
1424.99,1289
1425.42,1281
1425.86,1296
1426.29,1250
1426.73,1281
1427.16,1284
1427.59,1287
1428.03,1281
1428.46,1299
1428.9,1282
1429.33,1274
1429.77,1274
1430.2,1261
1430.63,1260
1431.07,1292
1431.5,1286
1431.94,1238
1432.37,1293
1432.8,1288
1433.24,1277
1433.67,1286
1434.1,1278
1434.54,1276
1434.97,1278
1435.41,1272
1435.84,1277
1436.27,1294
1436.71,1290
1437.14,1276
1437.57,1288
1438.01,1297
1438.44,1273
1438.88,1276
1439.31,1258
1439.74,1277
1440.17,1262
1440.61,1280
1441.04,1288
1441.47,1271
1441.91,1284
1442.34,1299
1442.77,1284
1443.21,1290
1443.64,1290
1444.07,1247
1444.51,1286
1444.94,1272
1445.37,1297
1445.8,1296
1446.24,1280
1446.67,1284
1447.1,1286
1447.54,1252
1447.97,1260
1448.4,1276
1448.83,1297
1449.27,1289
1449.7,1282
1450.13,1278
1450.57,1282
1451,1306
1451.43,1294
1451.86,1315
1452.3,1305
1452.73,1304.67
1453.16,1308.22
1453.59,1305.96
1454.02,1306.28
1454.46,1316.62
1454.89,1317.17
1455.32,1308.21
1455.75,1311
1456.18,1290
1456.62,1303
1457.05,1303
1457.48,1300
1457.91,1309
1458.34,1305
1458.78,1292
1459.21,1276
1459.64,1315
1460.07,1302
1460.5,1310
1460.94,1301
1461.37,1307
1461.8,1304
1462.23,1293
1462.66,1300
1463.09,1290
1463.53,1304
1463.96,1299
1464.39,1298
1464.82,1328
1465.25,1283
1465.68,1284
1466.12,1277
1466.55,1272
1466.98,1286
1467.41,1282
1467.84,1302
1468.27,1289
1468.7,1280
1469.13,1272
1469.56,1287
1470,1284
1470.43,1268
1470.86,1305
1471.29,1291
1471.72,1303
1472.15,1289
1472.58,1274
1473.01,1282
1473.44,1285
1473.87,1289
1474.31,1278
1474.74,1279
1475.17,1289
1475.6,1284
1476.03,1294
1476.46,1289
1476.89,1295
1477.32,1268
1477.75,1310
1478.18,1284
1478.61,1291
1479.04,1287
1479.47,1289
1479.9,1295
1480.33,1293
1480.76,1281
1481.19,1292
1481.62,1282
1482.05,1308
1482.48,1305
1482.91,1300
1483.34,1281
1483.77,1284
1484.2,1292
1484.63,1270
1485.06,1288
1485.49,1274
1485.92,1301
1486.35,1287
1486.78,1293
1487.21,1295
1487.64,1287
1488.07,1277
1488.5,1302
1488.93,1308
1489.36,1294
1489.79,1300
1490.22,1313
1490.65,1293
1491.08,1286
1491.51,1302
1491.94,1274
1492.37,1278
1492.8,1288
1493.23,1297
1493.66,1287
1494.09,1301
1494.51,1301
1494.94,1282
1495.37,1305
1495.8,1291
1496.23,1300
1496.66,1284
1497.09,1288
1497.52,1282
1497.95,1288
1498.38,1307
1498.81,1305
1499.23,1272
1499.66,1262
